12<?, ?sp/s, loss/train/total=8.4606]     [A
12<?, ?sp/s, loss/train/total=8.4606]     [A
12<?, ?sp/s, loss/train/total=8.4606]     [A
8.4606
8.4626
8.4611
8.4557
8.4477
8.4307
8.4121
8.3877
8.3642
8.3335
8.3094
8.2824
8.2593
8.2364
8.2173
8.2001
8.1811
8.1649
8.1453
8.1328
8.1154
8.1033
8.0862
8.0734
8.0590
8.0488
8.0384
8.0210
8.0101
7.9960
7.9843
7.9763
7.9657
7.9536
7.9493
7.9405
7.9276
7.9183
7.9075
7.9006
7.8907
7.8820
7.8712
7.8627
7.8497
7.8398
7.8257
7.8123
7.7996
7.7808
7.7668
7.7481
7.7373
7.7230
7.7064
7.6980
7.6786
7.6661
7.6535
7.6339
7.6232
7.6074
7.5914
7.5765
7.5670
7.5547
7.5433
7.5211
7.5082
7.4973
7.4866
7.4714
7.4645
7.4449
7.4357
7.4253
7.4162
7.3993
7.3939
7.3800
7.3676
7.3582
7.3476
7.3422
7.3297
7.3132
7.2980
7.2953
7.2894
7.2767
7.2652
7.2570
7.2513
7.2368
7.2310
7.2246
7.2103
7.2036
7.1942
7.1836
7.1731
7.1725
7.1557
7.1502
7.1445
7.1353
7.1281
7.1154
7.1112
7.1011
7.0944
7.0967
7.0845
7.0744
7.0683
7.0615
7.0542
7.0467
7.0347
7.0327
7.0226
7.0185
7.0047
6.9998
6.9944
6.9948
6.9800
6.9819
6.9695
6.9609
6.9548
6.9533
6.9416
6.9335
6.9314
6.9188
6.9074
6.9094
6.9095
6.8920
6.8928
6.8882
6.8819
6.8771
6.8743
6.8571
6.8577
6.8481
6.8394
6.8365
6.8296
6.8232
6.8244
6.8181
6.8155
6.8089
6.7961
6.7923
6.7926
6.7866
6.7884
6.7683
6.7711
6.7681
6.7569
6.7579
6.7533
6.7475
6.7391
6.7379
6.7383
6.7348
6.7294
6.7171
6.7129
6.7078
6.7035
6.7080
6.7030
6.6898
6.6945
6.6887
6.6895
6.6802
6.6786
6.6726
6.6571
6.6629
6.6613
6.6528
6.6590
6.6545
6.6539
6.6481
6.6408
6.6395
6.6293
6.6370
6.6300
6.6240
6.6217
6.6176
6.6146
6.6112
6.6072
6.5993
6.6104
6.6069
6.6023
6.6055
6.5985
6.6012
6.5943
6.5949
6.5912
6.5844
6.5822
6.5834
6.5857
6.5739
6.5804
6.5651
6.5684
6.5767
6.5637
6.5695
6.5637
6.5607
6.5667
6.5584
6.5562
6.5564
6.5633
6.5574
6.5516
6.5566
6.5482
6.5542
6.5528
6.5502
6.5457
6.5479
6.5457
6.5373
6.5372
6.5388
6.5436
6.5401
6.5395
6.5358
6.5390
6.5340
6.5308
6.5343
6.5396
6.5376
6.5341
6.5257
6.5250
6.5348
6.5302
6.5410
6.5282
6.5264
6.5183
6.5352
6.5232
6.5237
6.5262
6.5270
6.5171
6.5167
6.5267
6.5243
6.5225
6.5096
6.5091
6.5201
6.5289
6.5163
6.5174
6.5215
6.5152
6.5118
6.5170
6.5093
6.5106
6.5041
6.4967
6.5063
6.5106
6.5160
6.5123
6.5049
6.5041
6.5081
6.4957
6.5017
6.5033
6.5025
6.4988
6.5024
6.4976
6.5030
6.4964
6.4939
6.4922
6.5028
6.4917
6.5013
6.4995
6.4904
6.4993
6.4922
6.4934
6.4884
6.4835
6.4839
6.4882
6.4914
6.4852
6.4856
6.4809
6.4884
6.4830
6.4815
6.4892
6.4858
6.4720
6.4764
6.4883
6.4722
6.4728
6.4776
6.4768
6.4709
6.4691
6.4747
6.4737
6.4757
6.4658
6.4616
6.4654
6.4653
6.4601
6.4665
6.4599
6.4684
6.4622
6.4589
6.4523
6.4547
6.4628
6.4615
6.4521
6.4409
6.4571
6.4527
6.4567
6.4542
6.4539
6.4425
6.4488
6.4532
6.4385
6.4485
6.4521
6.4443
6.4364
6.4349
6.4444
6.4468
6.4416
6.4428
6.4458
6.4375
6.4359
6.4356
6.4384
6.4459
6.4350
6.4397
6.4321
6.4331
6.4278
6.4332
6.4293
6.4379
6.4307
6.4211
6.4236
6.4346
6.4249
6.4241
6.4212
6.4247
6.4325
6.4217
6.4262
6.4175
6.4322
6.4126
6.4270
6.4112
6.4161
6.4193
6.4115
6.4125
6.4235
6.4222
6.4075
6.4281
6.4160
6.4146
6.4138
6.4231
6.4236
6.4110
6.4087
6.4207
6.4149
6.4047
6.4125
6.4151
6.4029
6.4139
6.4138
6.4016
6.4113
6.4146
6.4016
6.4007
6.4092
6.4030
6.4011
6.3976
6.4102
6.4069
6.3879
6.3963
6.4018
6.4026
6.4195
6.3877
6.3953
6.3849
6.3812
6.3905
6.3927
6.3968
6.3896
6.3883
6.3862
6.3984
6.3885
6.3920
6.4010
6.3929
6.3986
6.3880
6.3812
6.3909
6.3724
6.3932
6.3992
6.3941
6.3845
6.3859
6.3909
6.3823
6.3869
6.3783
6.3855
6.3854
6.3856
6.3757
6.3854
6.3764
6.3810
6.3765
6.3711
6.3687
6.3869
6.3854
6.3750
6.3695
6.3744
6.3697
6.3646
6.3748
6.3646
6.3585
6.3732
6.3643
6.3706
6.3589
6.3628
6.3555
6.3577
6.3473
6.3606
6.3527
6.3454
6.3557
6.3421
6.3777
6.3545
6.3496
6.3577
6.3416
6.3387
6.3368
6.3393
6.3373
6.3344
6.3361
6.3293
6.3364
6.3302
6.3283
6.3272
6.3347
6.3248
6.3219
6.3239
6.3132
6.3155
6.3287
6.3102
6.3213
6.3081
6.3049
6.3076
6.2991
6.3110
6.3029
6.2996
6.3006
6.2972
6.2988
6.2960
6.2990
6.2941
6.2999
6.2888
6.2894
6.3026
6.2889
6.2862
6.2943
6.2884
6.2699
6.2881
6.2856
6.2998
6.2844
6.2798
6.2815
6.2800
6.2621
6.2667
6.2626
6.2736
6.2632
6.2778
6.2580
6.2555
6.2540
6.2609
6.2618
6.2536
6.2557
6.2580
6.2516
6.2519
6.2503
6.2443
6.2508
6.2556
6.2602
6.2338
6.2457
6.2464
6.2378
6.2402
6.2429
6.2381
6.2460
6.2316
6.2319
6.2342
6.2365
6.2273
6.2172
6.2398
6.2278
6.2246
6.2200
6.2188
6.2268
6.2191
6.2226
6.2169
6.2013
6.2057
6.2081
6.2102
6.2006
6.2177
6.2101
6.2072
6.2046
6.2001
6.1904
6.1982
6.1993
6.1988
6.1862
6.1829
6.1960
6.1869
6.1944
6.1820
6.1761
6.1817
6.1892
6.1650
6.1753
6.1754
6.1762
6.1728
6.1763
6.1718
6.1723
6.1608
6.1700
6.1643
6.1579
6.1506
6.1528
6.1512
6.1517
6.1506
6.1497
6.1494
6.1491
6.1526
6.1493
6.1524
6.1478
6.1417
6.1486
6.1350
6.1410
6.1443
6.1308
6.1410
6.1412
6.1345
6.1375
6.1355
6.1363
6.1297
6.1283
6.1291
6.1272
6.1205
6.1183
6.1150
6.1266
6.1144
6.1190
6.1181
6.1098
6.1165
6.1201
6.1082
6.1116
6.1052
6.1031
6.1053
6.1166
6.1039
6.1036
6.1056
6.1112
6.0906
6.1075
6.0921
6.0943
6.0998
6.0928
6.0770
6.0869
6.0969
6.1026
6.0903
6.0922
6.0916
6.0957
6.0980
6.0840
6.0934
6.0862
6.0868
6.0711
6.0811
6.0911
6.0763
6.0770
6.0650
6.0820
6.0754
6.0706
6.0535
6.0825
6.0749
6.0670
6.0699
6.0602
6.0658
6.0653
6.0664
6.0579
6.0529
6.0517
6.0609
6.0597
6.0511
6.0562
6.0625
6.0539
6.0535
6.0465
6.0375
6.0417
6.0526
6.0448
6.0384
6.0570
6.0382
6.0540
6.0384
6.0542
6.0378
6.0329
6.0439
6.0492
6.0472
6.0531
6.0464
6.0365
6.0379
6.0318
6.0371
6.0349
6.0255
6.0444
6.0463
6.0328
6.0231
6.0365
6.0247
6.0207
6.0131
6.0222
6.0156
6.0222
6.0168
6.0111
6.0248
6.0226
6.0185
6.0116
6.0186
6.0240
6.0161
6.0155
6.0127
6.0071
6.0137
6.0018
6.0173
6.0117
6.0052
6.0209
6.0045
6.0036
6.0033
6.0167
6.0012
6.0028
6.0033
6.0026
5.9893
5.9897
6.0079
5.9938
5.9957
5.9999
6.0018
5.9994
5.9932
5.9974
5.9912
6.0006
5.9897
5.9914
5.9867
5.9794
5.9894
5.9838
5.9837
5.9894
5.9836
5.9835
5.9818
5.9865
5.9861
5.9890
5.9853
5.9914
5.9852
5.9714
5.9769
5.9808
5.9845
5.9862
5.9892
5.9886
5.9787
5.9766
5.9838
5.9836
5.9774
5.9694
5.9578
5.9703
5.9795
5.9681
5.9686
5.9795
5.9673
5.9637
5.9642
5.9737
5.9704
5.9651
5.9695
5.9602
5.9646
5.9746
5.9689
5.9520
5.9746
5.9571
5.9505
5.9656
5.9633
5.9654
5.9764
5.9660
5.9572
5.9595
5.9649
5.9656
5.9519
5.9568
5.9662
5.9588
5.9484
5.9374
5.9583
5.9463
5.9562
5.9430
5.9576
5.9393
5.9382
5.9532
5.9542
5.9444
5.9464
5.9449
5.9467
5.9263
5.9332
5.9449
5.9402
5.9539
5.9321
5.9343
5.9461
5.9369
5.9295
5.9406
5.9402
5.9422
5.9456
5.9355
5.9292
5.9186
5.9336
5.9356
5.9340
5.9253
5.9298
5.9430
5.9261
5.9384
5.9237
5.9295
5.9253
5.9220
5.9337
5.9395
5.9204
5.9246
5.9244
5.9397
5.9238
5.8964
5.9157
5.9280
5.9187
5.9097
5.9206
5.9375
5.9229
5.9273
5.9198
5.9179
5.9178
5.9141
5.9102
5.9097
5.9219
5.8994
5.9150
5.9175
5.9144
5.9180
5.9064
5.9214
5.9139
5.8959
5.9087
5.9077
5.9021
5.8939
5.8941
5.9150
5.9165
5.8968
5.9105
5.9225
5.8942
5.9091
5.8936
5.9033
5.9131
5.8981
5.9028
5.8978
5.9112
5.8999
5.9108
5.8875
5.9031
5.8883
5.9045
5.8909
5.9034
5.8837
5.9041
5.8851
5.8879
5.8844
5.8943
5.8839
5.8848
5.8940
5.8866
5.8833
5.8958
5.8829
5.8755
5.8911
5.8934
5.8874
5.8933
5.8812
5.8954
5.8913
5.8841
5.8745
5.8713
5.8883
5.8851
5.8890
5.8734
5.8748
5.8837
5.8804
5.8893
5.8889
5.8881
5.8638
5.8851
5.8829
5.8931
5.8891
5.8853
5.8809
5.8837
5.8719
5.8613
5.8642
5.8849
5.8655
5.8770
5.8698
5.8640
5.8599
5.8815
5.8738
5.8705
5.8770
5.8681
5.8671
5.8654
5.8701
5.8725
5.8476
5.8601
5.8687
5.8620
5.8506
5.8697
5.8448
5.8682
5.8625
5.8624
5.8614
5.8674
5.8686
5.8676
5.8691
5.8579
5.8569
5.8669
5.8570
5.8489
5.8621
5.8602
5.8492
5.8554
5.8550
5.8459
5.8303
5.8476
5.8387
5.8584
5.8362
5.8463
5.8646
5.8409
5.8368
5.8578
5.8494
5.8558
5.8487
5.8615
5.8520
5.8463
5.8465
5.8429
5.8511
5.8353
5.8365
5.8352
5.8355
5.8390
5.8479
5.8459
5.8448
5.8506
5.8447
5.8434
5.8392
5.8420
5.8593
5.8378
5.8270
5.8390
5.8444
5.8380
5.8431
5.8420
5.8487
5.8375
5.8237
5.8361
5.8433
5.8290
5.8328
5.8514
5.8218
5.8201
5.8297
5.8409
5.8256
5.8432
5.8156
5.8151
5.8194
5.8386
5.8275
5.8395
5.8202
5.8319
5.8308
5.8325
5.8097
5.8157
5.8181
5.8017
5.8036
5.8135
5.8029
5.8324
5.8023
5.8243
5.8307
5.8184
5.8076
5.8095
5.7971
5.8101
5.8162
5.8078
5.8345
5.8003
5.8216
5.7999
5.8006
5.8066
5.7938
5.8151
5.8247
5.8162
5.8329
5.8294
5.8297
5.7923
5.8230
5.8095
5.8071
5.7992
5.8146
5.8039
5.8048
5.7937
5.8069
5.8031
5.8052
5.7920
5.8126
5.8126
5.7806
5.7869
5.8109
5.7958
5.8245
5.8007
5.8195
5.7997
5.7958
5.7966
5.8030
5.7943
5.7895
5.7878
5.7969
5.7861
5.8042
5.7924
5.8068
5.7990
5.7901
5.7968
5.7971
5.7908
5.7941
5.8012
5.7771
5.8103
5.7813
5.7937
5.7839
5.7932
5.8049
5.7933
5.7911
5.7830
5.7958
5.7793
5.7949
5.7861
5.7882
5.7909
5.7889
5.7768
5.7940
5.7734
5.7824
5.8061
5.7845
5.7812
5.7749
5.7800
5.7701
5.7936
5.7880
5.7718
5.7853
5.7793
5.7774
5.7812
5.7720
5.7798
5.7570
5.7815
5.7827
5.7796
5.7901
5.7717
5.7915
5.7713
5.7597
5.7899
5.7838
5.7808
5.7857
5.7708
5.7845
5.7983
5.7757
5.7788
5.7493
5.7575
5.7735
5.7681
5.7776
5.7824
5.7698
5.7685
5.7729
5.7743
5.7587
5.7521
5.7807
5.7586
5.7655
5.7497
5.7466
5.7641
5.7693
5.7588
5.7508
5.7550
5.7535
5.7481
5.7621
5.7613
5.7550
5.7485
5.7689
5.7424
5.7634
5.7585
5.7524
5.7575
5.7535
5.7535
5.7757
5.7639
5.7684
5.7640
5.7633
5.7605
5.7555
5.7488
5.7628
5.7487
5.7455
5.7615
5.7433
5.7314
5.7454
5.7550
5.7517
5.7774
5.7320
5.7420
5.7623
5.7375
5.7718
5.7520
5.7439
5.7330
5.7440
5.7486
5.7382
5.7566
5.7335
5.7431
5.7391
5.7443
5.7403
5.7235
5.7419
5.7546
5.7488
5.7645
5.7429
5.7543
5.7450
5.7513
5.7481
5.7458
5.7327
5.7480
5.7230
5.7275
5.7530
5.7373
5.7607
5.7411
5.7275
5.7452
5.7371
5.7288
5.7254
5.7419
5.7551
5.7619
5.7477
5.7154
5.7312
5.7295
5.7135
5.7310
5.7343
5.7334
5.7463
5.7326
5.7384
5.7233
5.7435
5.7283
5.7367
5.7333
5.7428
5.7321
5.7081
5.7231
5.7365
5.7275
5.7290
5.7333
5.7128
5.7304
5.7132
5.7266
5.7121
5.7116
5.7333
5.7253
5.7319
5.7044
5.7231
5.7123
5.7024
5.7401
5.7320
5.7451
5.7136
5.7133
5.7131
5.7305
5.7304
5.7143
5.7257
5.7116
5.7197
5.7138
5.7267
5.7240
5.6983
5.7083
5.6982
5.7281
5.7117
5.7136
5.7001
5.7018
5.7155
5.7067
5.7223
5.7211
5.7004
5.7029
5.7256
5.7040
5.7034
5.6993
5.6855
5.7101
5.7412
5.7132
5.7065
5.6961
5.7004
5.7177
5.7166
5.7026
5.7086
5.6989
5.7155
5.7256
5.7006
5.6971
5.7011
5.7163
5.6939
5.7066
5.6944
5.7292
5.7115
5.6974
5.6979
5.7014
5.7132
5.7164
5.7008
5.7177
5.7348
5.6989
5.7026
5.7025
5.6843
5.7083
5.6957
5.6945
5.6883
5.7045
5.7040
5.6916
5.6752
5.6906
5.6834
5.7066
5.7152
5.6867
5.7049
5.6825
5.7018
5.6863
5.6777
5.6641
5.7054
5.6877
5.7009
5.6864
5.6951
5.6762
5.7101
5.6915
5.6923
5.7116
5.7014
5.6912
5.6890
5.6898
5.6631
5.7006
5.7069
5.7001
5.6934
5.6866
5.6673
5.6840
5.6969
5.6707
5.6881
5.6786
5.6728
5.6939
5.6823
5.6876
5.6691
5.6779
5.6797
5.6725
5.6878
5.6702
5.6817
5.6683
5.6679
5.7080
5.7013
5.6507
5.6594
5.6856
5.6750
5.6801
5.6651
5.6739
5.6585
5.6723
5.6721
5.6745
5.6797
5.6728
5.6538
5.6513
5.6740
5.6515
5.6502
5.6730
5.6674
5.6562
5.6619
5.6519
5.6778
5.6535
5.6482
5.6472
5.6629
5.6633
5.6698
5.6587
5.6516
5.6833
5.6383
5.6583
5.6615
5.6549
5.6514
5.6883
5.6522
5.6537
5.6450
5.6718
5.6849
5.6319
5.6593
5.6475
5.6702
5.6608
5.6688
5.6634
5.6601
5.6585
5.6580
5.6592
5.6636
5.6528
5.6602
5.6470
5.6411
5.6562
5.6398
5.6586
5.6252
5.6305
5.6348
5.6707
5.6485
5.6648
5.6483
5.6370
5.6456
5.6539
5.6575
5.6543
5.6430
5.6341
5.6327
5.6492
5.6514
5.6799
5.6458
5.6542
5.6560
5.6155
5.6569
5.6374
5.6218
5.6643
5.6556
5.6224
5.6613
5.6641
5.6613
5.6439
5.6535
5.6297
5.6678
5.6574
5.6337
5.6470
5.6390
5.6045
5.6525
5.6633
5.6449
5.6514
5.6231
5.6653
5.6310
5.6505
5.6177
5.6245
5.6274
5.6170
5.6421
5.6359
5.6189
5.6518
5.6686
5.6487
5.6633
5.6613
5.6415
5.6464
5.6621
5.6571
5.6324
5.6220
5.6300
5.6409
5.6213
5.6298
5.6563
5.6423
5.6157
5.6442
5.6108
5.6408
5.6119
5.6158
5.6253
5.6082
5.6157
5.6389
5.6326
5.6265
5.6224
5.6173
5.6199
5.6125
5.6380
5.6237
5.6100
5.6080
5.6217
5.6398
5.6275
5.6193
5.6189
5.5955
5.6132
5.5878
5.6286
5.6092
5.6378
5.6288
5.6311
5.6564
5.6444
5.6246
5.6155
5.6187
5.6224
5.6317
5.6344
5.6178
5.6161
5.6082
5.6174
5.6059
5.6094
5.6247
5.6211
5.6096
5.6367
5.5970
5.6284
5.6136
5.6146
5.6283
5.6078
5.6061
5.6143
5.5807
5.6353
5.6244
5.5989
5.6285
5.5976
5.6072
5.6060
5.6158
5.6122
5.5946
5.6211
5.6312
5.6023
5.6149
5.5808
5.6076
5.6198
5.5996
5.5828
5.6054
5.6123
5.6044
5.5950
5.5844
5.5954
5.5937
5.5949
5.5987
5.6241
5.6016
5.5823
5.6161
5.6171
5.6008
5.5919
5.5876
5.5969
5.5728
5.5930
5.5983
5.5778
5.5923
5.6094
5.6175
5.5680
5.5683
5.5777
5.5611
5.5933
5.6076
5.5967
5.5919
5.6257
5.6015
5.6097
5.6175
5.6147
5.5991
5.6118
5.5842
5.6134
5.6083
5.5877
5.5622
5.6196
5.6061
5.5801
5.5973
5.6212
5.6072
5.5932
5.5939
5.5963
5.6015
5.5850
5.5939
5.5965
5.5783
5.5892
5.5919
5.6104
5.6137
5.6085
5.5811
5.5804
5.5994
5.5782
5.5877
5.5970
5.5794
5.5701
5.5719
5.5666
5.5430
5.5691
5.5878
5.5587
5.5668
5.6072
5.5864
5.5910
5.5776
5.5809
5.5730
5.5840
5.5782
5.5803
5.5574
5.5695
5.5698
5.5858
5.5787
5.5750
5.5852
5.5576
5.5813
5.5760
5.6058
5.5803
5.5843
5.5949
5.5691
5.5694
5.5687
5.5878
5.5804
5.5425
5.5827
5.5734
5.5855
5.5857
5.5635
5.5760
5.5727
5.5751
5.5917
5.5718
5.6028
5.5625
5.5852
5.5588
5.6142
5.5815
5.5837
5.5874
5.5633
5.5684
5.5598
5.6056
5.5504
5.5635
5.5653
5.5596
5.5686
5.5791
5.5804
5.5516
5.5976
5.5684
5.5615
5.5416
5.5738
5.5733
5.5741
5.5499
5.5677
5.5793
5.5787
5.5740
5.5576
5.5694
5.5711
5.5893
5.5540
5.5788
5.5561
5.5476
5.5589
5.5763
5.5592
5.5602
5.5619
5.5672
5.5550
5.5811
5.5685
5.5566
5.5621
5.5998
5.5788
5.5710
5.5439
5.5595
5.5841
5.5568
5.5842
5.5713
5.5400
5.5731
5.5568
5.5585
5.5709
5.5792
5.5797
5.5890
5.5451
5.5647
5.5294
5.5433
5.5351
5.5830
5.5633
5.5534
5.5372
5.5617
5.5590
5.5511
5.5573
5.5497
5.5489
5.5485
5.5832
5.5695
5.5576
5.5712
5.5453
5.5528
5.5825
5.5617
5.5644
5.5822
5.5449
5.5613
5.5477
5.5260
5.5538
5.5520
5.5251
5.5607
5.5797
5.5739
5.5205
5.5558
5.5301
5.5533
5.5477
5.5424
5.5118
5.5432
5.5681
5.5582
5.5745
5.5285
5.5310
5.5303
5.5157
5.5507
5.5613
5.5326
5.5560
5.5357
5.5430
5.5488
5.5618
5.5499
5.5634
5.5525
5.5511
5.5557
5.5586
5.5341
5.5286
5.5612
5.5615
5.5426
5.5194
5.5469
5.5184
5.5330
5.5263
5.5522
5.5491
5.5402
5.5525
5.5430
5.5516
5.5079
5.5594
5.5661
5.5691
5.5595
5.5026
5.5230
5.5260
5.5230
5.5411
5.5301
5.5327
5.5379
5.5479
5.5351
5.5115
5.5213
5.5562
5.5294
5.5772
5.5397
5.5441
5.5455
5.5328
5.5451
5.5234
5.5165
5.5229
5.5043
5.5187
5.5198
5.5316
5.5723
5.5346
5.5376
5.5468
5.5232
5.5582
5.5196
5.5416
5.5291
5.5292
5.5235
5.5130
5.5447
5.5370
5.5481
5.5492
5.5323
5.5161
5.5543
5.5297
5.5541
5.5316
5.5510
5.5068
5.5095
5.5522
5.5097
5.5217
5.5175
5.4944
5.5273
5.5375
5.5159
5.5468
5.5347
5.5448
5.5070
5.5037
5.5052
5.5367
5.5540
5.5228
5.5197
5.5392
5.5154
5.5396
5.5193
5.5406
5.5388
5.5123
5.4869
5.5228
5.4792
5.5442
5.5127
5.5155
5.5266
5.5354
5.5330
5.5463
5.5130
5.5289
5.5196
5.5120
5.5453
5.5173
5.5167
5.4902
5.5166
5.5034
5.5158
5.5201
5.5135
5.4950
5.5092
5.5367
5.4954
5.4912
5.5220
5.5064
5.5113
5.5049
5.5266
5.5079
5.5133
5.5225
5.5186
5.5171
5.4900
5.5148
5.5244
5.4972
5.5276
5.5257
5.5106
5.5374
5.5008
5.5035
5.5031
5.5281
5.5031
5.5244
5.5106
5.5021
5.5138
5.5232
5.4953
5.5136
5.5085
5.4970
5.4770
5.4954
5.4714
5.5398
5.5192
5.5227
5.5316
5.5187
5.5151
5.5526
5.5052
5.5361
5.5300
5.5155
5.5119
5.5095
5.5153
5.5148
5.4889
5.5164
5.5172
5.4582
5.5251
5.4699
5.4893
5.4981
5.4877
5.5119
5.4845
5.5434
5.4927
5.5025
5.5008
5.4994
5.4757
5.5150
5.5091
5.5290
5.4654
5.4916
5.5005
5.5008
5.5165
5.5152
5.5175
5.4784
5.5085
5.5259
5.4787
5.4850
5.5225
5.4643
5.5074
5.5065
5.5110
5.4820
5.4865
5.5011
5.4803
5.4919
5.4870
5.4945
5.4868
5.5211
5.4939
5.4755
5.4997
5.4687
5.5150
5.4847
5.4971
5.4945
5.4889
5.4863
5.5041
5.5208
5.4881
5.4926
5.4950
5.4970
5.4681
5.4869
5.4954
5.4885
5.4733
5.4820
5.4819
5.5013
5.4832
5.5388
5.4794
5.4778
5.5001
5.5190
5.4997
5.4868
5.4900
5.4992
5.4887
5.5043
5.4993
5.4698
5.4805
5.4957
5.5035
5.4996
5.4690
5.4864
5.5106
5.4479
5.5015
5.4902
5.4792
5.5188
5.4736
5.5083
5.4881
5.4859
5.4845
5.4982
5.4930
5.4755
5.5317
5.4923
5.4619
5.4927
5.4524
5.4822
5.4790
5.4514
5.4617
5.5015
5.4375
5.4755
5.4822
5.4420
5.4719
5.4789
5.4874
5.4792
5.5184
5.4794
5.4422
5.5103
5.4842
5.5273
5.4803
5.5004
5.4937
5.4866
5.4818
5.4702
5.4685
5.4821
5.4798
5.4779
5.4579
5.4886
5.4892
5.4914
5.4636
5.4844
5.4657
5.4772
5.4905
5.4591
5.4689
5.4707
5.5067
5.4778
5.4738
5.4735
5.4852
5.4636
5.5203
5.4787
5.4723
5.4876
5.5004
5.4544
5.4788
5.4743
5.4902
5.4595
5.5002
5.4417
5.4742
5.4595
5.4651
5.4837
5.4797
5.4795
5.4315
5.4639
5.4929
5.4653
5.4749
5.4740
5.4914
5.5090
5.4484
5.4713
5.4481
5.4651
5.4385
5.4513
5.4702
5.4548
5.4592
5.4559
5.4766
5.4861
5.4740
5.4581
5.4446
5.4686
5.4524
5.4759
5.4739
5.4984
5.4383
5.4816
5.4572
5.4771
5.4537
5.4388
5.4385
5.4514
5.4481
5.4093
5.4801
5.4668
5.4739
5.4502
5.4621
5.4699
5.4944
5.4636
5.4522
5.5060
5.4993
5.4941
5.4562
5.4582
5.4691
5.4613
5.4558
5.4759
5.4684
5.4689
5.4872
5.4324
5.4956
5.4238
5.4393
5.4680
5.4812
5.4883
5.4629
5.4445
5.4221
5.4180
5.4542
5.4216
5.4451
5.4645
5.4357
5.4789
5.4320
5.4924
5.4698
5.4487
5.4580
5.4362
5.4592
5.4636
5.4798
5.4692
5.4635
5.4290
5.4459
5.4628
5.4715
5.4540
5.4665
5.4910
5.4591
5.4377
5.4503
5.4485
5.4755
5.4713
5.4531
5.4538
5.4465
5.4566
5.4532
5.4771
5.4458
5.4400
5.4510
5.4384
5.4322
5.4787
5.4746
5.4695
5.4595
5.4547
5.4511
5.4377
5.4301
5.4536
5.4380
5.4136
5.4445
5.4606
5.4699
5.4641
5.4468
5.4565
5.4582
5.4422
5.4290
5.4335
5.4555
5.4671
5.4669
5.4153
5.4166
5.4556
5.4550
5.4455
5.4437
5.4561
5.4427
5.4425
5.4458
5.4308
5.4352
5.4565
5.4457
5.4501
5.4603
5.4575
5.4014
5.4473
5.4342
5.4596
5.4404
5.4297
5.4336
5.4474
5.4515
5.4324
5.4378
5.4473
5.4398
5.4410
5.4391
5.4080
5.4205
5.4493
5.4832
5.4290
5.4570
5.4302
5.4471
5.4382
5.4144
5.4449
5.4035
5.4217
5.4234
5.4489
5.4437
5.4123
5.4388
5.4186
5.4336
5.4143
5.4332
5.4589
5.4239
5.4315
5.4294
5.4681
5.4296
5.4463
5.4298
5.4236
5.4363
5.4631
5.4573
5.4579
5.4404
5.4424
5.4261
5.4260
5.4301
5.4245
5.4386
5.3888
5.4333
5.4335
5.4615
5.4304
5.4264
5.4191
5.4551
5.4261
5.4619
5.4616
5.4397
5.4509
5.4215
5.4359
5.4464
5.4658
5.4280
5.4283
5.4156
5.4202
5.4495
5.4303
5.4313
5.4054
5.4347
5.4002
5.4373
5.4401
5.4074
5.4405
5.4231
5.4414
5.4122
5.4286
5.4480
5.4526
5.4120
5.4609
5.4186
5.4450
5.4282
5.4368
5.4497
5.4412
5.4421
5.4230
5.4143
5.4381
5.4072
5.4018
5.4416
5.4226
5.4212
5.4202
5.4248
5.3956
5.4067
5.4549
5.4005
5.4186
5.4315
5.4100
5.4371
5.4412
5.4244
5.4346
5.4654
5.4155
5.4317
5.4481
5.4109
5.4030
5.4089
5.4345
5.4155
5.4245
5.4116
5.4115
5.4314
5.4074
5.3893
5.4325
5.4122
5.4269
5.4434
5.3687
5.4249
5.4249
5.3957
5.3975
5.4275
5.4238
5.4424
5.4302
5.4493
5.4509
5.4225
5.4209
5.4258
5.4242
5.4359
5.4230
5.4150
5.4439
5.4109
5.4211
5.4150
5.4477
5.3953
5.4172
5.4140
5.4365
5.3941
5.4337
5.4144
5.4049
5.4165
5.3936
5.4284
5.4076
5.4184
5.4515
5.4087
5.3972
5.3774
5.4280
5.4020
5.4094
5.4201
5.3799
5.4267
5.4137
5.4090
5.4231
5.4384
5.3982
5.4018
5.4224
5.4051
5.3888
5.4438
5.3909
5.4062
5.4344
5.4204
5.3939
5.3966
5.4158
5.3813
5.3951
5.4111
5.4154
5.4291
5.3840
5.4292
5.4202
5.3961
5.4179
5.4106
5.4117
5.3827
5.4271
5.4146
5.3720
5.4198
5.4188
5.4591
5.4172
5.4021
5.3961
5.3960
5.4092
5.4006
5.3999
5.4390
5.3934
5.3990
5.4023
5.3996
5.3755
5.3965
5.4119
5.4025
5.4237
5.4119
5.4247
5.4273
5.4062
5.4069
5.4515
5.4402
5.4031
5.4228
5.3981
5.4093
5.4116
5.4130
5.4039
5.4128
5.4084
5.4355
5.4029
5.4057
5.4363
5.3947
5.3896
5.3949
5.4353
5.3798
5.4049
5.4039
5.4202
5.4336
5.3971
5.3831
5.3822
5.3800
5.3996
5.4076
5.3882
5.3923
5.4204
5.3720
5.4049
5.3577
5.3940
5.3943
5.3933
5.3973
5.3703
5.3892
5.4128
5.3960
5.4262
5.4072
5.3866
5.4031
5.4044
5.3935
5.3991
5.4019
5.4041
5.4056
5.4066
5.3758
5.3802
5.3801
5.4074
5.3814
5.3567
5.3944
5.4115
5.3948
5.3952
5.3857
5.3392
5.3979
5.4065
5.3831
5.4229
5.3860
5.4103
5.3970
5.3968
5.3828
5.3983
5.3965
5.3858
5.3802
5.3839
5.3493
5.3866
5.3861
5.3726
5.3870
5.3717
5.3996
5.3650
5.3685
5.3739
5.3845
5.3767
5.3971
5.3922
5.3778
5.3792
5.3931
5.3705
5.3788
5.3630
5.3758
5.4002
5.4155
5.3736
5.3651
5.4108
5.4047
5.4061
5.4040
5.3925
